

# ING Filter Throughput Data
# Serial Number : 74
# Filtername    : H6834
# Filtersystem  : Narrow Band
# Passband      : Halpha 6834/51
# FWHM          : 51
# Cosmetics     : 
# Measured      : 2010-04-07 15:10:45
# Wavelength Throughput
# nm %
660 -0.000117689
660.1 -7.02233e-05
660.2 0.000270055
660.3 0.000376887
660.4 0.000111721
660.5 -0.0001152
660.6 0.000109094
660.7 -4.66723e-07
660.8 -0.000130134
660.9 0.000449864
661 0.000419064
661.1 0.000202036
661.2 0.000202373
661.3 0.00044089
661.4 0.000560833
661.5 4.41002e-05
661.6 6.40716e-05
661.7 4.42187e-05
661.8 -9.5729e-05
661.9 0.000525153
662 0.000345443
662.1 0.000436042
662.2 0.000667614
662.3 0.00041642
662.4 0.000386349
662.5 0.000578546
662.6 -0.000524927
662.7 7.21353e-05
662.8 0.000549399
662.9 0.000478339
663 0.000488667
663.1 0.000658267
663.2 0.000603554
663.3 0.000282251
663.4 0.000350094
663.5 0.000130294
663.6 -0.000358135
663.7 0.000369975
663.8 0.000707782
663.9 0.000570296
664 0.000308138
664.1 2.97186e-05
664.2 0.000353682
664.3 0.000240678
664.4 0.000753568
664.5 0.000368443
664.6 0.000442636
664.7 0.000811128
664.8 0.00103324
664.9 0.00140352
665 0.00145773
665.1 0.00124349
665.2 0.00130429
665.3 0.00147167
665.4 0.00108628
665.5 0.00118994
665.6 0.000845563
665.7 0.00127059
665.8 0.00051758
665.9 0.00154564
666 0.00141517
666.1 0.00110762
666.2 0.00159918
666.3 0.00148573
666.4 0.001329
666.5 0.00104057
666.6 0.000729227
666.7 0.00148833
666.8 0.00163747
666.9 0.00163343
667 0.00207011
667.1 0.00195845
667.2 0.00220097
667.3 0.00213341
667.4 0.00141863
667.5 0.00199695
667.6 0.00195027
667.7 0.00235363
667.8 0.00264768
667.9 0.00303349
668 0.00305924
668.1 0.00316788
668.2 0.00284293
668.3 0.0036419
668.4 0.00269496
668.5 0.00298998
668.6 0.00279828
668.7 0.00358278
668.8 0.00322984
668.9 0.00345897
669 0.00338275
669.1 0.00365871
669.2 0.00384022
669.3 0.00435053
669.4 0.0043653
669.5 0.00374215
669.6 0.00472475
669.7 0.00525595
669.8 0.00524223
669.9 0.00532177
670 0.00657846
670.1 0.00590288
670.2 0.00572011
670.3 0.00598572
670.4 0.00652576
670.5 0.0064768
670.6 0.00696033
670.7 0.00730145
670.8 0.00749502
670.9 0.00773183
671 0.00803493
671.1 0.00870862
671.2 0.00862242
671.3 0.00975663
671.4 0.00950175
671.5 0.0103486
671.6 0.0105634
671.7 0.0113733
671.8 0.0119986
671.9 0.0120322
672 0.0134966
672.1 0.0135265
672.2 0.0143736
672.3 0.0145339
672.4 0.0155254
672.5 0.0157951
672.6 0.0166027
672.7 0.0165086
672.8 0.0173062
672.9 0.0181093
673 0.018346
673.1 0.0196947
673.2 0.0204198
673.3 0.0214042
673.4 0.0216217
673.5 0.0229779
673.6 0.0235055
673.7 0.0250787
673.8 0.0264312
673.9 0.0268971
674 0.0286555
674.1 0.0297692
674.2 0.0311528
674.3 0.0317984
674.4 0.0331975
674.5 0.0352768
674.6 0.036973
674.7 0.0383598
674.8 0.0403084
674.9 0.0422099
675 0.0444291
675.1 0.0466275
675.2 0.0495129
675.3 0.0515687
675.4 0.0544128
675.5 0.0570228
675.6 0.0614756
675.7 0.0662643
675.8 0.0690435
675.9 0.074284
676 0.0784728
676.1 0.0844549
676.2 0.089981
676.3 0.0961989
676.4 0.104548
676.5 0.112636
676.6 0.12133
676.7 0.131581
676.8 0.142228
676.9 0.155631
677 0.170266
677.1 0.184779
677.2 0.20304
677.3 0.224589
677.4 0.247869
677.5 0.274521
677.6 0.30523
677.7 0.340044
677.8 0.382264
677.9 0.428228
678 0.4864
678.1 0.551942
678.2 0.626876
678.3 0.712273
678.4 0.816675
678.5 0.941314
678.6 1.09225
678.7 1.26035
678.8 1.47087
678.9 1.73168
679 2.02697
679.1 2.36049
679.2 2.77034
679.3 3.26529
679.4 3.85821
679.5 4.50297
679.6 5.28955
679.7 6.20527
679.8 7.20527
679.9 8.25281
680 9.47445
680.1 10.8489
680.2 12.341
680.3 13.866
680.4 15.5936
680.5 17.4222
680.6 19.2571
680.7 21.0988
680.8 23.0777
680.9 25.1371
681 27.2237
681.1 29.2313
681.2 31.3455
681.3 33.4404
681.4 35.3833
681.5 37.2018
681.6 38.9952
681.7 40.7377
681.8 42.3987
681.9 43.8737
682 45.275
682.1 46.5618
682.2 47.6604
682.3 48.6222
682.4 49.4761
682.5 50.197
682.6 50.84
682.7 51.3223
682.8 51.7143
682.9 51.9864
683 52.1597
683.1 52.2103
683.2 52.2062
683.3 52.1434
683.4 51.9583
683.5 51.7357
683.6 51.4749
683.7 51.1347
683.8 50.7191
683.9 50.3398
684 49.8693
684.1 49.3236
684.2 48.757
684.3 48.1297
684.4 47.42
684.5 46.6665
684.6 45.8496
684.7 45.0129
684.8 44.037
684.9 43.0324
685 41.9049
685.1 40.7505
685.2 39.4523
685.3 38.0455
685.4 36.6302
685.5 35.1968
685.6 33.6781
685.7 32.0068
685.8 30.2901
685.9 28.6307
686 26.8238
686.1 24.9489
686.2 23.1881
686.3 21.5067
686.4 19.7935
686.5 18.0551
686.6 16.3971
686.7 14.8761
686.8 13.3602
686.9 11.8964
687 10.5991
687.1 9.44411
687.2 8.33088
687.3 7.28118
687.4 6.33235
687.5 5.52704
687.6 4.76599
687.7 4.09082
687.8 3.52554
687.9 3.05425
688 2.63049
688.1 2.25336
688.2 1.93337
688.3 1.67286
688.4 1.43728
688.5 1.2376
688.6 1.07526
688.7 0.942057
688.8 0.823525
688.9 0.718793
689 0.628411
689.1 0.55481
689.2 0.490046
689.3 0.431785
689.4 0.385463
689.5 0.343503
689.6 0.308169
689.7 0.274679
689.8 0.244669
689.9 0.221822
690 0.199498
690.1 0.179497
690.2 0.162296
690.3 0.148948
690.4 0.13543
690.5 0.12429
690.6 0.113452
690.7 0.10315
690.8 0.0947635
690.9 0.086487
691 0.0801452
691.1 0.0734525
691.2 0.0682939
691.3 0.0622833
691.4 0.057715
691.5 0.0539685
691.6 0.0491685
691.7 0.0457892
691.8 0.0421465
691.9 0.0396375
692 0.0369719
692.1 0.0342369
692.2 0.0322926
692.3 0.0303542
692.4 0.0282066
692.5 0.0266745
692.6 0.0246246
692.7 0.0234502
692.8 0.0217574
692.9 0.0206287
693 0.0190758
693.1 0.0182441
693.2 0.0168112
693.3 0.0157862
693.4 0.0150966
693.5 0.0144559
693.6 0.013412
693.7 0.0127127
693.8 0.0119805
693.9 0.0113303
694 0.0107017
694.1 0.0102213
694.2 0.00987624
694.3 0.00918254
694.4 0.00835523
694.5 0.00858193
694.6 0.00794742
694.7 0.00790182
694.8 0.00695958
694.9 0.00680705
695 0.00659445
695.1 0.00595902
695.2 0.00624352
695.3 0.00600516
695.4 0.00553932
695.5 0.00507057
695.6 0.0048009
695.7 0.00468161
695.8 0.00413748
695.9 0.00454874
696 0.00398511
696.1 0.00393114
696.2 0.00396366
696.3 0.00354712
696.4 0.00335578
696.5 0.0031874
696.6 0.00274953
696.7 0.00290351
696.8 0.00282822
696.9 0.00217942
697 0.00267429
697.1 0.00243452
697.2 0.00220552
697.3 0.00255432
697.4 0.0020269
697.5 0.00232695
697.6 0.00240357
697.7 0.0022316
697.8 0.00210898
697.9 0.00203475
698 0.00197311
698.1 0.00192702
698.2 0.00191739
698.3 0.00181874
698.4 0.00172138
698.5 0.00177651
698.6 0.00134409
698.7 0.00161711
698.8 0.00104062
698.9 0.00126346
699 0.000942161
699.1 0.00129864
699.2 0.000756021
699.3 0.0011662
699.4 0.00111835
699.5 0.00107105
699.6 0.00110215
699.7 0.000735503
699.8 0.0011639
699.9 0.00084801
700 0.00109214
700.1 0.00108468
700.2 0.00122558
700.3 0.00112421
700.4 0.00103543
700.5 0.000743597
700.6 0.000952516
700.7 0.000535155
700.8 0.000758372
700.9 0.000873065
701 0.00101646
701.1 0.000854412
701.2 0.0007056
701.3 0.000278995
701.4 0.000211845
701.5 0.000172257
701.6 0.000524172
701.7 0.000485469
701.8 0.000433153
701.9 0.000451178
702 0.000342044
702.1 5.26772e-05
702.2 -0.000152822
702.3 0.000124714
702.4 -0.000139346
702.5 0.000282688
702.6 0.000548633
702.7 0.00062877
702.8 0.000607517
702.9 0.000354911
703 0.000434409
703.1 0.000855188
703.2 0.000504687
703.3 0.000328056
703.4 0.000121094
703.5 -0.000204642
703.6 0.000249628
703.7 0.000307071
703.8 9.78827e-05
703.9 0.00060115
704 0.000540686
704.1 0.000654302
704.2 9.41706e-05
704.3 0.000192015
704.4 0.000486173
704.5 0.000479745
704.6 -4.13916e-05
704.7 0.000193491
704.8 -1.1473e-05
704.9 0.000376713
705 0.000186477
705.1 0.000110086
705.2 -0.00013561
705.3 0.000388066
705.4 0.000265687
705.5 -1.17652e-05
705.6 0.000299494
705.7 -0.000212246
705.8 -0.000195924
705.9 -0.000132417
706 -0.000428903
706.1 -0.000237136
706.2 -0.00035973
706.3 0.000132847
706.4 5.76917e-05
706.5 -0.000208383
706.6 -0.000300991
706.7 4.48422e-06
706.8 -4.04248e-05
706.9 0.00040016
707 0.000416314
707.1 0.000240524
707.2 0.0005047
707.3 0.000447724
707.4 0.000294852
707.5 0.000416706
707.6 0.000479075
707.7 0.000517753
707.8 7.52724e-07
707.9 0.000292451
708 0.000282085
708.1 0.000294076
708.2 0.000318499
708.3 0.000196561
708.4 0.000319213
708.5 0.000344342
708.6 0.000185106
708.7 0.000247371
708.8 6.286e-05
708.9 -0.000159535
709 -0.000184039
709.1 -0.000413615
709.2 4.409e-06
709.3 1.16432e-05
709.4 -0.000319674
709.5 0.000214266
709.6 0.000196775
709.7 0.000418819
709.8 9.76193e-05
709.9 7.92651e-05
710 -0.000295989
