# ING Filter Throughput Data
# Serial Number : 64
# Filtername    : H6607
# Filtersystem  : Narrow Band
# Passband      : Halpha 6607/50
# FWHM          : 50
# Cosmetics     : 
# Measured      : 2010-04-07 15:50:03
# Wavelength Throughput
# nm %
645 0.000540965
645.1 0.000350788
645.2 0.000249762
645.3 0.000526706
645.4 0.000785932
645.5 0.000973615
645.6 0.00108915
645.7 0.00116864
645.8 0.00142993
645.9 0.00145612
646 0.00137247
646.1 0.00148435
646.2 0.00145071
646.3 0.00161756
646.4 0.00103624
646.5 0.00180508
646.6 0.00147961
646.7 0.00164736
646.8 0.00146754
646.9 0.00176453
647 0.00200718
647.1 0.00230851
647.2 0.00196641
647.3 0.00278586
647.4 0.00259143
647.5 0.00293091
647.6 0.00286584
647.7 0.00281827
647.8 0.00340184
647.9 0.00294543
648 0.00386481
648.1 0.00365192
648.2 0.00414877
648.3 0.0041385
648.4 0.00467453
648.5 0.00459114
648.6 0.00471409
648.7 0.00506459
648.8 0.00554665
648.9 0.00569197
649 0.00606225
649.1 0.00613138
649.2 0.00616518
649.3 0.00667758
649.4 0.00693921
649.5 0.00744841
649.6 0.00764078
649.7 0.00870319
649.8 0.00889585
649.9 0.00899041
650 0.00956741
650.1 0.0103224
650.2 0.0111554
650.3 0.011621
650.4 0.0117655
650.5 0.0133155
650.6 0.0136415
650.7 0.0141113
650.8 0.0151135
650.9 0.0162924
651 0.0170047
651.1 0.0170933
651.2 0.0187331
651.3 0.0199428
651.4 0.0210705
651.5 0.0221335
651.6 0.0235227
651.7 0.0247827
651.8 0.0268446
651.9 0.0281594
652 0.0299246
652.1 0.0318336
652.2 0.0335681
652.3 0.0368266
652.4 0.0392325
652.5 0.0428583
652.6 0.0452951
652.7 0.0488924
652.8 0.0525809
652.9 0.0572266
653 0.0619826
653.1 0.0672491
653.2 0.0727924
653.3 0.0783369
653.4 0.0860785
653.5 0.09304
653.6 0.101882
653.7 0.110993
653.8 0.122618
653.9 0.134789
654 0.148772
654.1 0.165684
654.2 0.184328
654.3 0.202864
654.4 0.226472
654.5 0.255243
654.6 0.287793
654.7 0.32339
654.8 0.366054
654.9 0.416038
655 0.477232
655.1 0.541557
655.2 0.619728
655.3 0.71581
655.4 0.826777
655.5 0.956183
655.6 1.11492
655.7 1.30397
655.8 1.52472
655.9 1.76889
656 2.06467
656.1 2.42899
656.2 2.84573
656.3 3.30771
656.4 3.86887
656.5 4.5165
656.6 5.22039
656.7 5.9696
656.8 6.8395
656.9 7.79892
657 8.87494
657.1 9.97997
657.2 11.2083
657.3 12.5575
657.4 13.9305
657.5 15.2768
657.6 16.7485
657.7 18.329
657.8 19.937
657.9 21.5043
658 23.2148
658.1 24.9162
658.2 26.5554
658.3 28.1598
658.4 29.7455
658.5 31.359
658.6 32.9764
658.7 34.4634
658.8 35.9497
658.9 37.4432
659 38.8004
659.1 40.0288
659.2 41.249
659.3 42.407
659.4 43.5196
659.5 44.4724
659.6 45.3787
659.7 46.2015
659.8 46.9116
659.9 47.4755
660 47.9542
660.1 48.3719
660.2 48.669
660.3 48.8418
660.4 48.9634
660.5 48.9291
660.6 48.8136
660.7 48.6242
660.8 48.3337
660.9 47.9232
661 47.4899
661.1 46.9546
661.2 46.3279
661.3 45.6517
661.4 44.9292
661.5 44.1724
661.6 43.3554
661.7 42.4626
661.8 41.5147
661.9 40.5848
662 39.5483
662.1 38.4644
662.2 37.403
662.3 36.3314
662.4 35.2043
662.5 33.9621
662.6 32.715
662.7 31.4784
662.8 30.1607
662.9 28.7613
663 27.4099
663.1 26.0887
663.2 24.689
663.3 23.2128
663.4 21.7563
663.5 20.3728
663.6 18.9106
663.7 17.4579
663.8 16.1078
663.9 14.8371
664 13.5768
664.1 12.3135
664.2 11.1071
664.3 10.0373
664.4 8.9686
664.5 7.95973
664.6 7.08466
664.7 6.29753
664.8 5.56773
664.9 4.87965
665 4.26151
665.1 3.73706
665.2 3.24689
665.3 2.80627
665.4 2.44377
665.5 2.14489
665.6 1.86956
665.7 1.62667
665.8 1.41751
665.9 1.24381
666 1.08525
666.1 0.948909
666.2 0.837273
666.3 0.742552
666.4 0.659316
666.5 0.585092
666.6 0.516558
666.7 0.46104
666.8 0.412354
666.9 0.368005
667 0.329823
667.1 0.297617
667.2 0.269278
667.3 0.242278
667.4 0.21835
667.5 0.19809
667.6 0.180849
667.7 0.16415
667.8 0.147566
667.9 0.136288
668 0.125517
668.1 0.114127
668.2 0.105491
668.3 0.0952194
668.4 0.0886876
668.5 0.0813069
668.6 0.0749033
668.7 0.0693296
668.8 0.0652767
668.9 0.0591376
669 0.0541532
669.1 0.0500614
669.2 0.0473735
669.3 0.043495
669.4 0.0398386
669.5 0.0377998
669.6 0.0356512
669.7 0.0332927
669.8 0.0314172
669.9 0.0288429
670 0.0272009
670.1 0.0245559
670.2 0.0231185
670.3 0.0207103
670.4 0.0193881
670.5 0.0185243
670.6 0.0171727
670.7 0.0160081
670.8 0.0154145
670.9 0.0153486
671 0.0139629
671.1 0.0124727
671.2 0.012439
671.3 0.0117812
671.4 0.0106983
671.5 0.00962502
671.6 0.00936405
671.7 0.00905829
671.8 0.00890614
671.9 0.00848557
672 0.00789198
672.1 0.00702672
672.2 0.00693744
672.3 0.00672723
672.4 0.00610127
672.5 0.00610919
672.6 0.00542292
672.7 0.00543538
672.8 0.00461646
672.9 0.00460755
673 0.00494929
673.1 0.00441186
673.2 0.00436217
673.3 0.00463568
673.4 0.00401515
673.5 0.0037206
673.6 0.00347392
673.7 0.00347631
673.8 0.0031665
673.9 0.00268631
674 0.00288858
674.1 0.00315606
674.2 0.00244929
674.3 0.00243737
674.4 0.0027644
674.5 0.00228267
674.6 0.00218622
674.7 0.00146658
674.8 0.00176676
674.9 0.00136447
675 0.000867222
